# Wavelength table for acs,wfc,g800l_wfc
      5000
      5040
      5080
      5120
      5160
      5200
      5240
      5280
      5320
      5360
      5400
      5440
      5480
      5520
      5560
      5600
      5640
      5680
      5720
      5760
      5800
      5840
      5880
      5920
      5960
      6000
      6040
      6080
      6120
      6160
      6200
      6240
      6280
      6320
      6360
      6400
      6440
      6480
      6520
      6560
      6600
      6640
      6680
      6720
      6760
      6800
      6840
      6880
      6920
      6960
      7000
      7040
      7080
      7120
      7160
      7200
      7240
      7280
      7320
      7360
      7400
      7440
      7480
      7520
      7560
      7600
      7640
      7680
      7720
      7760
      7800
      7840
      7880
      7920
      7960
      8000
      8040
      8080
      8120
      8160
      8200
      8240
      8280
      8320
      8360
      8400
      8440
      8480
      8520
      8560
      8600
      8640
      8680
      8720
      8760
      8800
      8840
      8880
      8920
      8960
      9000
      9040
      9080
      9120
      9160
      9200
      9240
      9280
      9320
      9360
      9400
      9440
      9480
      9520
      9560
      9600
      9640
      9680
      9720
      9760
      9800
      9840
      9880
      9920
      9960
     10000
     10040
     10080
     10120
     10160
     10200
     10240
     10280
     10320
     10360
     10400
     10440
     10480
     10520
     10560
     10600
     10640
     10680
     10720
     10760
     10800
     10840
     10880
     10920
     10960
     11000
