# Wavelength table for hrs,echb,18
3036.000 
3036.035 
3036.070 
3036.106 
3036.141 
3036.176 
3036.211 
3036.246 
3036.282 
3036.317 
3036.352 
3036.387 
3036.422 
3036.458 
3036.493 
3036.528 
3036.563 
3036.598 
3036.633 
3036.669 
3036.704 
3036.739 
3036.774 
3036.809 
3036.844 
3036.880 
3036.915 
3036.950 
3036.985 
3037.020 
3037.055 
3037.091 
3037.126 
3037.161 
3037.196 
3037.231 
3037.266 
3037.302 
3037.337 
3037.372 
3037.407 
3037.442 
3037.477 
3037.513 
3037.548 
3037.583 
3037.618 
3037.653 
3037.688 
3037.723 
3037.759 
3037.794 
3037.829 
3037.864 
3037.899 
3037.934 
3037.969 
3038.005 
3038.040 
3038.075 
3038.110 
3038.145 
3038.180 
3038.215 
3038.251 
3038.286 
3038.321 
3038.356 
3038.391 
3038.426 
3038.461 
3038.496 
3038.532 
3038.567 
3038.602 
3038.637 
3038.672 
3038.707 
3038.742 
3038.777 
3038.812 
3038.848 
3038.883 
3038.918 
3038.953 
3038.988 
3039.023 
3039.058 
3039.093 
3039.128 
3039.163 
3039.199 
3039.234 
3039.269 
3039.304 
3039.339 
3039.374 
3039.409 
3039.444 
3039.479 
3039.514 
3039.550 
3039.585 
3039.620 
3039.655 
3039.690 
3039.725 
3039.760 
3039.795 
3039.830 
3039.865 
3039.900 
3039.935 
3039.970 
3040.006 
3040.041 
3040.076 
3040.111 
3040.146 
3040.181 
3040.216 
3040.251 
3040.286 
3040.321 
3040.356 
3040.391 
3040.426 
3040.461 
3040.496 
3040.532 
3040.567 
3040.602 
3040.637 
3040.672 
3040.707 
3040.742 
3040.777 
3040.812 
3040.847 
3040.882 
3040.917 
3040.952 
3040.987 
3041.022 
3041.057 
3041.092 
3041.127 
3041.162 
3041.197 
3041.232 
3041.267 
3041.302 
3041.337 
3041.373 
3041.408 
3041.443 
3041.478 
3041.513 
3041.548 
3041.583 
3041.618 
3041.653 
3041.688 
3041.723 
3041.758 
3041.793 
3041.828 
3041.863 
3041.898 
3041.933 
3041.968 
3042.003 
3042.038 
3042.073 
3042.108 
3042.143 
3042.178 
3042.213 
3042.248 
3042.283 
3042.318 
3042.353 
3042.388 
3042.423 
3042.458 
3042.493 
3042.528 
3042.563 
3042.598 
3042.633 
3042.668 
3042.703 
3042.738 
3042.773 
3042.808 
3042.843 
3042.878 
3042.913 
3042.948 
3042.983 
3043.018 
3043.053 
3043.088 
3043.123 
3043.158 
3043.193 
3043.228 
3043.262 
3043.297 
3043.332 
3043.367 
3043.402 
3043.437 
3043.472 
3043.507 
3043.542 
3043.577 
3043.612 
3043.647 
3043.682 
3043.717 
3043.752 
3043.787 
3043.822 
3043.857 
3043.892 
3043.927 
3043.962 
3043.997 
3044.032 
3044.066 
3044.101 
3044.136 
3044.171 
3044.206 
3044.241 
3044.276 
3044.311 
3044.346 
3044.381 
3044.416 
3044.451 
3044.486 
3044.521 
3044.556 
3044.590 
3044.625 
3044.660 
3044.695 
3044.730 
3044.765 
3044.800 
3044.835 
3044.870 
3044.905 
3044.940 
3044.975 
3045.010 
3045.044 
3045.079 
3045.114 
3045.149 
3045.184 
3045.219 
3045.254 
3045.289 
3045.324 
3045.359 
3045.393 
3045.428 
3045.463 
3045.498 
3045.533 
3045.568 
3045.603 
3045.638 
3045.673 
3045.708 
3045.742 
3045.777 
3045.812 
3045.847 
3045.882 
3045.917 
3045.952 
3045.987 
3046.022 
3046.056 
3046.091 
3046.126 
3046.161 
3046.196 
3046.231 
3046.266 
3046.301 
3046.335 
3046.370 
3046.405 
3046.440 
3046.475 
3046.510 
3046.545 
3046.579 
3046.614 
3046.649 
3046.684 
3046.719 
3046.754 
3046.789 
3046.823 
3046.858 
3046.893 
3046.928 
3046.963 
3046.998 
3047.033 
3047.067 
3047.102 
3047.137 
3047.172 
3047.207 
3047.242 
3047.277 
3047.311 
3047.346 
3047.381 
3047.416 
3047.451 
3047.486 
3047.520 
3047.555 
3047.590 
3047.625 
3047.660 
3047.695 
3047.729 
3047.764 
3047.799 
3047.834 
3047.869 
3047.903 
3047.938 
3047.973 
3048.008 
3048.043 
3048.078 
3048.112 
3048.147 
3048.182 
3048.217 
3048.252 
3048.286 
3048.321 
3048.356 
3048.391 
3048.426 
3048.460 
3048.495 
3048.530 
3048.565 
3048.600 
3048.634 
3048.669 
3048.704 
3048.739 
3048.774 
3048.808 
3048.843 
3048.878 
3048.913 
3048.948 
3048.982 
3049.017 
3049.052 
3049.087 
3049.121 
3049.156 
3049.191 
3049.226 
3049.261 
3049.295 
3049.330 
3049.365 
3049.400 
3049.434 
3049.469 
3049.504 
3049.539 
3049.574 
3049.608 
3049.643 
3049.678 
3049.713 
3049.747 
3049.782 
3049.817 
3049.852 
3049.886 
3049.921 
3049.956 
3049.991 
3050.025 
3050.060 
3050.095 
3050.130 
3050.164 
3050.199 
3050.234 
3050.269 
3050.303 
3050.338 
3050.373 
3050.408 
3050.442 
3050.477 
3050.512 
3050.547 
3050.581 
3050.616 
3050.651 
3050.686 
3050.720 
3050.755 
3050.790 
3050.824 
3050.859 
3050.894 
3050.929 
3050.963 
3050.998 
3051.033 
3051.067 
3051.102 
3051.137 
3051.172 
3051.206 
3051.241 
3051.276 
3051.310 
3051.345 
3051.380 
3051.415 
3051.449 
3051.484 
3051.519 
3051.553 
3051.588 
3051.623 
3051.658 
3051.692 
3051.727 
3051.762 
3051.796 
3051.831 
3051.866 
3051.900 
3051.935 
3051.970 
3052.004 
3052.039 
3052.074 
3052.109 
3052.143 
3052.178 
3052.213 
3052.247 
3052.282 
3052.317 
3052.351 
3052.386 
3052.421 
3052.455 
3052.490 
3052.525 
3052.559 
3052.594 
3052.629 
3052.663 
3052.698 
3052.733 
3052.767 
3052.802 
3052.837 
3052.871 
3052.906 
3052.941 
3052.975 
3053.010 
3053.045 
3053.079 
3053.114 
3053.149 
3053.183 
3053.218 
3053.253 
3053.287 
3053.322 
3053.356 
3053.391 
3053.426 
3053.460 
3053.495 
3053.530 
3053.564 
3053.599 
3053.634 
3053.668 
3053.703 
3053.738 
3053.772 
3053.807 
3053.841 
3053.876 
3053.911 
3053.945 
3053.980 
3054.015 
3054.049 
3054.084 
3054.118 
3054.153 
3054.188 
3054.222 
3054.257 
3054.291 
3054.326 
3054.361 
3054.395 
3054.430 
3054.465 
3054.499 
3054.534 
3054.568 
3054.603 
3054.638 
3054.672 
3054.707 
3054.741 
3054.776 
3054.811 
3054.845 
3054.880 
3054.914 
3054.949 
3054.984 
3055.018 
3055.053 
3055.087 
3055.122 
3055.157 
3055.191 
3055.226 
3055.260 
3055.295 
3055.329 
3055.364 
3055.399 
3055.433 
3055.468 
3055.502 
3055.537 
3055.571 
3055.606 
3055.641 
3055.675 
3055.710 
3055.744 
3055.779 
3055.813 
3055.848 
3055.883 
3055.917 
3055.952 
3055.986 
3056.021 
3056.055 
3056.090 
3056.124 
3056.159 
3056.194 
3056.228 
3056.263 
3056.297 
3056.332 
3056.366 
3056.401 
3056.435 
3056.470 
3056.505 
3056.539 
3056.574 
3056.608 
3056.643 
3056.677 
3056.712 
3056.746 
3056.781 
3056.815 
3056.850 
3056.884 
3056.919 
3056.954 
3056.988 
3057.023 
3057.057 
3057.092 
3057.126 
3057.161 
3057.195 
3057.230 
3057.264 
3057.299 
3057.333 
3057.368 
3057.402 
3057.437 
3057.471 
3057.506 
3057.540 
3057.575 
3057.609 
3057.644 
3057.678 
3057.713 
3057.747 
3057.782 
3057.816 
3057.851 
3057.885 
3057.920 
3057.954 
3057.989 
3058.023 
3058.058 
3058.092 
3058.127 
3058.161 
3058.196 
3058.230 
3058.265 
3058.299 
3058.334 
3058.368 
3058.403 
3058.437 
3058.472 
3058.506 
3058.541 
3058.575 
3058.610 
3058.644 
3058.679 
3058.713 
3058.748 
3058.782 
3058.816 
3058.851 
3058.885 
3058.920 
3058.954 
3058.989 
3059.023 
3059.058 
3059.092 
3059.127 
3059.161 
3059.196 
3059.230 
3059.264 
3059.299 
3059.333 
3059.368 
3059.402 
3059.437 
3059.471 
3059.506 
3059.540 
3059.574 
3059.609 
3059.643 
3059.678 
3059.712 
3059.747 
3059.781 
3059.816 
3059.850 
3059.884 
3059.919 
3059.953 
3059.988 
3060.022 
3060.057 
3060.091 
3060.125 
3060.160 
3060.194 
3060.229 
3060.263 
3060.298 
3060.332 
3060.366 
3060.401 
3060.435 
3060.470 
3060.504 
3060.538 
3060.573 
3060.607 
3060.642 
3060.676 
3060.711 
3060.745 
3060.779 
3060.814 
3060.848 
3060.883 
3060.917 
3060.951 
3060.986 
3061.020 
3061.055 
3061.089 
3061.123 
3061.158 
3061.192 
3061.227 
3061.261 
3061.295 
3061.330 
3061.364 
3061.398 
3061.433 
3061.467 
3061.502 
3061.536 
3061.570 
3061.605 
3061.639 
3061.673 
3061.708 
3061.742 
3061.777 
3061.811 
3061.845 
3061.880 
3061.914 
3061.948 
3061.983 
3062.017 
3062.052 
3062.086 
3062.120 
3062.155 
3062.189 
3062.223 
3062.258 
3062.292 
3062.326 
3062.361 
3062.395 
3062.429 
3062.464 
3062.498 
3062.533 
3062.567 
3062.601 
3062.636 
3062.670 
3062.704 
3062.739 
3062.773 
3062.807 
3062.842 
3062.876 
3062.910 
3062.945 
3062.979 
3063.013 
3063.048 
3063.082 
3063.116 
3063.151 
3063.185 
3063.219 
3063.254 
3063.288 
3063.322 
3063.357 
3063.391 
3063.425 
3063.460 
3063.494 
3063.528 
3063.562 
3063.597 
3063.631 
3063.665 
3063.700 
3063.734 
3063.768 
3063.803 
3063.837 
3063.871 
3063.906 
3063.940 
3063.974 
3064.008 
3064.043 
3064.077 
3064.111 
3064.146 
3064.180 
3064.214 
3064.249 
3064.283 
3064.317 
3064.351 
3064.386 
3064.420 
3064.454 
3064.489 
3064.523 
3064.557 
3064.591 
3064.626 
3064.660 
3064.694 
3064.729 
3064.763 
3064.797 
3064.831 
3064.866 
3064.900 
3064.934 
3064.968 
3065.003 
3065.037 
3065.071 
3065.105 
3065.140 
3065.174 
3065.208 
3065.243 
3065.277 
3065.311 
3065.345 
3065.380 
3065.414 
3065.448 
3065.482 
3065.517 
3065.551 
3065.585 
3065.619 
3065.654 
3065.688 
3065.722 
3065.756 
3065.791 
3065.825 
3065.859 
3065.893 
3065.927 
3065.962 
3065.996 
3066.030 
3066.064 
3066.099 
3066.133 
3066.167 
3066.201 
3066.236 
3066.270 
3066.304 
3066.338 
3066.372 
3066.407 
3066.441 
3066.475 
3066.509 
3066.544 
3066.578 
3066.612 
3066.646 
3066.680 
3066.715 
3066.749 
3066.783 
3066.817 
3066.851 
3066.886 
3066.920 
3066.954 
3066.988 
3067.023 
3067.057 
3067.091 
3067.125 
3067.159 
3067.194 
3067.228 
3067.262 
3067.296 
3067.330 
3067.364 
3067.399 
3067.433 
3067.467 
3067.501 
3067.535 
3067.570 
3067.604 
3067.638 
3067.672 
3067.706 
3067.741 
3067.775 
3067.809 
3067.843 
3067.877 
3067.911 
3067.946 
3067.980 
3068.014 
3068.048 
3068.082 
3068.116 
3068.151 
3068.185 
3068.219 
3068.253 
3068.287 
3068.321 
3068.356 
3068.390 
3068.424 
3068.458 
3068.492 
3068.526 
3068.560 
3068.595 
3068.629 
3068.663 
3068.697 
3068.731 
3068.765 
3068.799 
3068.834 
3068.868 
3068.902 
3068.936 
3068.970 
3069.004 
3069.038 
3069.073 
3069.107 
3069.141 
3069.175 
3069.209 
3069.243 
3069.277 
3069.312 
3069.346 
3069.380 
3069.414 
3069.448 
3069.482 
3069.516 
3069.550 
3069.585 
3069.619 
3069.653 
3069.687 
3069.721 
3069.755 
3069.789 
3069.823 
3069.857 
3069.892 
3069.926 
3069.960 
3069.994 
3070.028 
3070.062 
3070.096 
3070.130 
3070.164 
3070.198 
3070.233 
3070.267 
3070.301 
3070.335 
3070.369 
3070.403 
3070.437 
3070.471 
3070.505 
3070.539 
3070.573 
3070.608 
3070.642 
3070.676 
3070.710 
3070.744 
3070.778 
3070.812 
3070.846 
3070.880 
3070.914 
3070.948 
3070.982 
3071.016 
3071.051 
3071.085 
3071.119 
3071.153 
3071.187 
3071.221 
3071.255 
3071.289 
3071.323 
3071.357 
3071.391 
3071.425 
3071.459 
3071.493 
3071.527 
3071.561 
3071.596 
3071.630 
3071.664 
3071.698 
3071.732 
3071.766 
3071.800 
3071.834 
3071.868 
3071.902 
3071.936 
3071.970 
3072.004 
3072.038 
3072.072 
3072.106 
3072.140 
3072.174 
3072.208 
3072.242 
3072.276 
3072.310 
3072.344 
3072.378 
3072.412 
3072.446 
3072.480 
3072.515 
3072.549 
3072.583 
3072.617 
3072.651 
3072.685 
3072.719 
3072.753 
3072.787 
3072.821 
3072.855 
3072.889 
3072.923 
3072.957 
3072.991 
3073.025 
3073.059 
3073.093 
3073.127 
3073.161 
3073.195 
3073.229 
3073.263 
3073.297 
3073.331 
3073.365 
3073.399 
3073.433 
3073.467 
3073.501 
3073.535 
3073.569 
3073.603 
3073.637 
3073.671 
3073.705 
3073.739 
3073.773 
3073.807 
3073.841 
3073.874 
3073.908 
3073.942 
3073.976 
3074.010 
3074.044 
3074.078 
3074.112 
3074.146 
3074.180 
3074.214 
3074.248 
3074.282 
3074.316 
3074.350 
3074.384 
3074.418 
3074.452 
3074.486 
3074.520 
3074.554 
3074.588 
3074.622 
3074.656 
3074.690 
3074.724 
3074.758 
3074.791 
3074.825 
3074.859 
3074.893 
3074.927 
3074.961 
3074.995 
3075.029 
3075.063 
3075.097 
3075.131 
3075.165 
3075.199 
3075.233 
3075.267 
3075.301 
3075.334 
3075.368 
3075.402 
3075.436 
3075.470 
3075.504 
3075.538 
3075.572 
3075.606 
3075.640 
3075.674 
3075.708 
3075.742 
3075.775 
3075.809 
3075.843 
3075.877 
3075.911 
3075.945 
3075.979 
3076.013 
3076.047 
3076.081 
3076.115 
3076.148 
3076.182 
3076.216 
3076.250 
3076.284 
3076.318 
3076.352 
3076.386 
3076.420 
3076.454 
3076.487 
3076.521 
3076.555 
3076.589 
3076.623 
3076.657 
3076.691 
3076.725 
3076.759 
3076.792 
3076.826 
3076.860 
3076.894 
3076.928 
3076.962 
3076.996 
3077.030 
3077.063 
3077.097 
3077.131 
3077.165 
3077.199 
3077.233 
3077.267 
3077.300 
3077.334 
3077.368 
3077.402 
3077.436 
3077.470 
3077.504 
3077.538 
3077.571 
3077.605 
3077.639 
3077.673 
3077.707 
3077.741 
3077.774 
3077.808 
3077.842 
3077.876 
3077.910 
3077.944 
3077.978 
3078.011 
3078.045 
3078.079 
3078.113 
3078.147 
3078.181 
3078.214 
3078.248 
3078.282 
3078.316 
3078.350 
3078.384 
3078.417 
3078.451 
3078.485 
3078.519 
3078.553 
3078.587 
3078.620 
3078.654 
3078.688 
3078.722 
3078.756 
3078.789 
3078.823 
3078.857 
3078.891 
3078.925 
3078.958 
3078.992 
3079.026 
3079.060 
3079.094 
3079.128 
3079.161 
3079.195 
3079.229 
3079.263 
3079.297 
3079.330 
3079.364 
3079.398 
3079.432 
3079.466 
3079.499 
3079.533 
3079.567 
3079.601 
3079.634 
3079.668 
3079.702 
3079.736 
3079.770 
3079.803 
3079.837 
3079.871 
3079.905 
3079.939 
3079.972 
3080.006 
3080.040 
3080.074 
3080.107 
3080.141 
3080.175 
3080.209 
3080.242 
3080.276 
3080.310 
3080.344 
3080.378 
3080.411 
3080.445 
3080.479 
3080.513 
3080.546 
3080.580 
3080.614 
3080.648 
3080.681 
3080.715 
3080.749 
3080.783 
3080.816 
3080.850 
3080.884 
3080.918 
3080.951 
3080.985 
3081.019 
3081.053 
3081.086 
3081.120 
3081.154 
3081.187 
3081.221 
3081.255 
3081.289 
3081.322 
3081.356 
3081.390 
3081.424 
3081.457 
3081.491 
3081.525 
3081.559 
3081.592 
3081.626 
3081.660 
3081.693 
3081.727 
3081.761 
3081.795 
3081.828 
3081.862 
3081.896 
3081.929 
3081.963 
3081.997 
3082.031 
3082.064 
3082.098 
3082.132 
3082.165 
3082.199 
3082.233 
3082.266 
3082.300 
3082.334 
3082.368 
3082.401 
3082.435 
3082.469 
3082.502 
3082.536 
3082.570 
3082.603 
3082.637 
3082.671 
3082.704 
3082.738 
3082.772 
3082.806 
3082.839 
3082.873 
3082.907 
3082.940 
3082.974 
3083.008 
3083.041 
3083.075 
3083.109 
3083.142 
3083.176 
3083.210 
3083.243 
3083.277 
3083.311 
3083.344 
3083.378 
3083.412 
3083.445 
3083.479 
3083.513 
3083.546 
3083.580 
3083.614 
3083.647 
3083.681 
3083.715 
3083.748 
3083.782 
3083.816 
3083.849 
3083.883 
3083.916 
3083.950 
3083.984 
3084.017 
3084.051 
3084.085 
3084.118 
3084.152 
3084.186 
3084.219 
3084.253 
3084.286 
3084.320 
3084.354 
3084.387 
3084.421 
3084.455 
3084.488 
3084.522 
3084.556 
3084.589 
3084.623 
3084.656 
3084.690 
3084.724 
3084.757 
3084.791 
3084.824 
3084.858 
3084.892 
3084.925 
3084.959 
3084.993 
3085.026 
3085.060 
3085.093 
3085.127 
3085.161 
3085.194 
3085.228 
3085.261 
3085.295 
3085.329 
3085.362 
3085.396 
3085.429 
3085.463 
3085.497 
3085.530 
3085.564 
3085.597 
3085.631 
3085.664 
3085.698 
3085.732 
3085.765 
3085.799 
3085.832 
3085.866 
3085.900 
3085.933 
3085.967 
3086.000 
3086.034 
3086.067 
3086.101 
3086.135 
3086.168 
3086.202 
3086.235 
3086.269 
3086.302 
3086.336 
3086.370 
3086.403 
3086.437 
3086.470 
3086.504 
3086.537 
3086.571 
3086.605 
3086.638 
3086.672 
3086.705 
3086.739 
3086.772 
3086.806 
3086.839 
3086.873 
3086.906 
3086.940 
3086.974 
3087.007 
3087.041 
3087.074 
3087.108 
3087.141 
3087.175 
3087.208 
3087.242 
3087.275 
3087.309 
3087.342 
3087.376 
3087.410 
3087.443 
3087.477 
3087.510 
3087.544 
3087.577 
3087.611 
3087.644 
3087.678 
3087.711 
3087.745 
3087.778 
3087.812 
3087.845 
3087.879 
3087.912 
3087.946 
3087.979 
3088.013 
3088.046 
3088.080 
3088.113 
3088.147 
3088.180 
3088.214 
3088.247 
3088.281 
3088.314 
3088.348 
3088.381 
3088.415 
3088.448 
3088.482 
3088.515 
3088.549 
3088.582 
3088.616 
3088.649 
3088.683 
3088.716 
3088.750 
3088.783 
3088.817 
3088.850 
3088.884 
3088.917 
3088.951 
3088.984 
3089.018 
3089.051 
3089.085 
3089.118 
3089.152 
3089.185 
3089.218 
3089.252 
3089.285 
3089.319 
3089.352 
3089.386 
3089.419 
3089.453 
3089.486 
3089.520 
3089.553 
3089.587 
3089.620 
3089.653 
3089.687 
3089.720 
3089.754 
3089.787 
3089.821 
3089.854 
3089.888 
3089.921 
3089.955 
3089.988 
3090.021 
3090.055 
3090.088 
3090.122 
3090.155 
3090.189 
3090.222 
3090.255 
3090.289 
3090.322 
3090.356 
3090.389 
3090.423 
3090.456 
3090.490 
3090.523 
3090.556 
3090.590 
3090.623 
3090.657 
3090.690 
3090.723 
3090.757 
3090.790 
3090.824 
3090.857 
3090.891 
3090.924 
3090.957 
3090.991 
3091.024 
3091.058 
3091.091 
3091.124 
3091.158 
3091.191 
3091.225 
3091.258 
3091.291 
3091.325 
3091.358 
3091.392 
3091.425 
3091.458 
3091.492 
3091.525 
3091.559 
3091.592 
3091.625 
3091.659 
3091.692 
3091.726 
3091.759 
3091.792 
3091.826 
3091.859 
3091.892 
3091.926 
3091.959 
3091.993 
3092.026 
3092.059 
3092.093 
3092.126 
3092.159 
3092.193 
3092.226 
3092.260 
3092.293 
3092.326 
3092.360 
3092.393 
3092.426 
3092.460 
3092.493 
3092.526 
3092.560 
3092.593 
3092.627 
3092.660 
3092.693 
3092.727 
3092.760 
3092.793 
3092.827 
3092.860 
3092.893 
3092.927 
3092.960 
3092.993 
3093.027 
3093.060 
3093.093 
3093.127 
3093.160 
3093.193 
3093.227 
3093.260 
3093.293 
3093.327 
3093.360 
3093.393 
3093.427 
3093.460 
3093.493 
3093.527 
3093.560 
3093.593 
3093.627 
3093.660 
3093.693 
3093.727 
3093.760 
3093.793 
3093.827 
3093.860 
3093.893 
3093.927 
3093.960 
3093.993 
3094.026 
3094.060 
3094.093 
3094.126 
3094.160 
3094.193 
3094.226 
3094.260 
3094.293 
3094.326 
3094.359 
3094.393 
3094.426 
3094.459 
3094.493 
3094.526 
3094.559 
3094.593 
3094.626 
3094.659 
3094.692 
3094.726 
3094.759 
3094.792 
3094.826 
3094.859 
3094.892 
3094.925 
3094.959 
3094.992 
3095.025 
3095.058 
3095.092 
3095.125 
3095.158 
3095.192 
3095.225 
3095.258 
3095.291 
3095.325 
3095.358 
3095.391 
3095.424 
3095.458 
3095.491 
3095.524 
3095.557 
3095.591 
3095.624 
3095.657 
3095.690 
3095.724 
3095.757 
3095.790 
3095.823 
3095.857 
3095.890 
3095.923 
3095.956 
3095.990 
3096.023 
3096.056 
3096.089 
3096.123 
3096.156 
3096.189 
3096.222 
3096.256 
3096.289 
3096.322 
3096.355 
3096.389 
3096.422 
3096.455 
3096.488 
3096.521 
3096.555 
3096.588 
3096.621 
3096.654 
3096.688 
3096.721 
3096.754 
3096.787 
3096.820 
3096.854 
3096.887 
3096.920 
3096.953 
3096.986 
3097.020 
3097.053 
3097.086 
3097.119 
3097.152 
3097.186 
3097.219 
3097.252 
3097.285 
3097.318 
3097.352 
3097.385 
3097.418 
3097.451 
3097.484 
3097.518 
3097.551 
3097.584 
3097.617 
3097.650 
3097.684 
3097.717 
3097.750 
3097.783 
3097.816 
3097.850 
3097.883 
3097.916 
3097.949 
3097.982 
3098.015 
3098.049 
3098.082 
3098.115 
3098.148 
3098.181 
3098.214 
3098.248 
3098.281 
3098.314 
3098.347 
3098.380 
3098.413 
3098.447 
3098.480 
3098.513 
3098.546 
3098.579 
3098.612 
3098.646 
3098.679 
3098.712 
3098.745 
3098.778 
3098.811 
3098.844 
3098.878 
3098.911 
3098.944 
3098.977 
3099.010 
3099.043 
3099.076 
3099.110 
3099.143 
3099.176 
3099.209 
3099.242 
3099.275 
3099.308 
3099.341 
3099.375 
3099.408 
3099.441 
3099.474 
3099.507 
3099.540 
3099.573 
3099.606 
3099.640 
3099.673 
3099.706 
3099.739 
3099.772 
3099.805 
3099.838 
3099.871 
3099.905 
3099.938 
3099.971 
3100.004 
3100.037 
3100.070 
3100.103 
3100.136 
3100.169 
3100.202 
3100.236 
3100.269 
3100.302 
3100.335 
3100.368 
3100.401 
3100.434 
3100.467 
3100.500 
3100.533 
3100.566 
3100.600 
3100.633 
3100.666 
3100.699 
3100.732 
3100.765 
3100.798 
3100.831 
3100.864 
3100.897 
3100.930 
3100.963 
3100.997 
3101.030 
3101.063 
3101.096 
3101.129 
3101.162 
3101.195 
3101.228 
3101.261 
3101.294 
3101.327 
3101.360 
3101.393 
3101.426 
3101.459 
3101.493 
3101.526 
3101.559 
3101.592 
3101.625 
3101.658 
3101.691 
3101.724 
3101.757 
3101.790 
3101.823 
3101.856 
3101.889 
3101.922 
3101.955 
3101.988 
3102.021 
3102.054 
3102.087 
3102.120 
3102.153 
3102.186 
3102.220 
3102.253 
3102.286 
3102.319 
3102.352 
3102.385 
3102.418 
3102.451 
3102.484 
3102.517 
3102.550 
3102.583 
3102.616 
3102.649 
3102.682 
3102.715 
3102.748 
3102.781 
3102.814 
3102.847 
3102.880 
3102.913 
3102.946 
3102.979 
3103.012 
3103.045 
3103.078 
3103.111 
3103.144 
3103.177 
3103.210 
3103.243 
3103.276 
3103.309 
3103.342 
3103.375 
3103.408 
3103.441 
3103.474 
3103.507 
3103.540 
3103.573 
3103.606 
3103.639 
3103.672 
3103.705 
3103.738 
3103.771 
3103.804 
3103.837 
3103.870 
3103.903 
3103.936 
3103.969 
3104.002 
3104.035 
3104.068 
3104.101 
3104.134 
3104.166 
3104.199 
3104.232 
3104.265 
3104.298 
3104.331 
3104.364 
3104.397 
3104.430 
3104.463 
3104.496 
3104.529 
3104.562 
3104.595 
3104.628 
3104.661 
3104.694 
3104.727 
3104.760 
3104.793 
3104.826 
3104.859 
3104.891 
3104.924 
3104.957 
3104.990 
3105.023 
3105.056 
3105.089 
3105.122 
3105.155 
3105.188 
3105.221 
3105.254 
3105.287 
3105.320 
3105.353 
3105.385 
3105.418 
3105.451 
3105.484 
3105.517 
3105.550 
3105.583 
3105.616 
3105.649 
3105.682 
3105.715 
3105.748 
3105.780 
3105.813 
3105.846 
3105.879 
3105.912 
3105.945 
3105.978 
3106.011 
3106.044 
3106.077 
3106.110 
3106.142 
3106.175 
3106.208 
3106.241 
3106.274 
3106.307 
3106.340 
3106.373 
3106.406 
3106.439 
3106.471 
3106.504 
3106.537 
3106.570 
3106.603 
3106.636 
3106.669 
3106.702 
3106.734 
3106.767 
3106.800 
3106.833 
3106.866 
3106.899 
3106.932 
3106.965 
3106.997 
3107.030 
3107.063 
3107.096 
3107.129 
3107.162 
3107.195 
3107.228 
3107.260 
3107.293 
3107.326 
3107.359 
3107.392 
3107.425 
3107.458 
3107.490 
3107.523 
3107.556 
3107.589 
3107.622 
3107.655 
3107.687 
3107.720 
3107.753 
3107.786 
3107.819 
3107.852 
3107.885 
3107.917 
3107.950 
3107.983 
3108.016 
3108.049 
3108.082 
3108.114 
3108.147 
3108.180 
3108.213 
3108.246 
3108.279 
3108.311 
3108.344 
3108.377 
3108.410 
3108.443 
3108.475 
3108.508 
3108.541 
3108.574 
3108.607 
3108.640 
3108.672 
3108.705 
3108.738 
3108.771 
3108.804 
3108.836 
3108.869 
3108.902 
3108.935 
3108.968 
3109.000 
3109.033 
3109.066 
3109.099 
3109.132 
3109.164 
3109.197 
3109.230 
3109.263 
3109.296 
3109.328 
3109.361 
3109.394 
3109.427 
3109.460 
3109.492 
3109.525 
3109.558 
3109.591 
3109.624 
3109.656 
3109.689 
3109.722 
3109.755 
3109.787 
3109.820 
3109.853 
3109.886 
3109.919 
3109.951 
3109.984 
3110.017 
3110.050 
3110.082 
3110.115 
3110.148 
3110.181 
3110.213 
3110.246 
3110.279 
3110.312 
3110.344 
3110.377 
3110.410 
3110.443 
3110.475 
3110.508 
3110.541 
3110.574 
3110.606 
3110.639 
3110.672 
3110.705 
3110.737 
3110.770 
3110.803 
3110.836 
3110.868 
3110.901 
3110.934 
3110.967 
3110.999 
3111.032 
3111.065 
3111.098 
3111.130 
3111.163 
3111.196 
3111.228 
3111.261 
3111.294 
3111.327 
3111.359 
3111.392 
3111.425 
3111.458 
3111.490 
3111.523 
3111.556 
3111.588 
3111.621 
3111.654 
3111.687 
3111.719 
3111.752 
3111.785 
3111.817 
3111.850 
3111.883 
3111.915 
3111.948 
3111.981 
3112.014 
3112.046 
3112.079 
3112.112 
3112.144 
3112.177 
3112.210 
3112.242 
3112.275 
3112.308 
3112.341 
3112.373 
3112.406 
3112.439 
3112.471 
3112.504 
3112.537 
3112.569 
3112.602 
3112.635 
3112.667 
3112.700 
3112.733 
3112.765 
3112.798 
3112.831 
3112.863 
3112.896 
3112.929 
3112.961 
3112.994 
3113.027 
3113.059 
3113.092 
3113.125 
3113.157 
3113.190 
3113.223 
3113.255 
3113.288 
3113.321 
3113.353 
3113.386 
3113.419 
3113.451 
3113.484 
3113.517 
3113.549 
3113.582 
3113.615 
3113.647 
3113.680 
3113.712 
3113.745 
3113.778 
3113.810 
3113.843 
3113.876 
3113.908 
3113.941 
3113.974 
3114.006 
3114.039 
3114.071 
3114.104 
3114.137 
3114.169 
3114.202 
3114.235 
3114.267 
3114.300 
3114.332 
3114.365 
3114.398 
3114.430 
3114.463 
3114.496 
3114.528 
3114.561 
3114.593 
3114.626 
3114.659 
3114.691 
3114.724 
3114.756 
3114.789 
3114.822 
3114.854 
3114.887 
3114.919 
3114.952 
3114.985 
3115.017 
3115.050 
3115.082 
3115.115 
3115.148 
3115.180 
3115.213 
3115.245 
3115.278 
3115.311 
3115.343 
3115.376 
3115.408 
3115.441 
3115.473 
3115.506 
3115.539 
3115.571 
3115.604 
3115.636 
3115.669 
3115.701 
3115.734 
3115.767 
3115.799 
3115.832 
3115.864 
3115.897 
3115.929 
3115.962 
3115.995 
3116.027 
3116.060 
3116.092 
3116.125 
3116.157 
3116.190 
3116.223 
3116.255 
3116.288 
3116.320 
3116.353 
3116.385 
3116.418 
3116.450 
3116.483 
3116.515 
3116.548 
3116.581 
3116.613 
3116.646 
3116.678 
3116.711 
3116.743 
3116.776 
3116.808 
3116.841 
3116.873 
3116.906 
3116.938 
3116.971 
3117.004 
3117.036 
3117.069 
3117.101 
3117.134 
3117.166 
3117.199 
3117.231 
3117.264 
3117.296 
3117.329 
3117.361 
3117.394 
3117.426 
3117.459 
3117.491 
3117.524 
3117.556 
3117.589 
3117.621 
3117.654 
3117.686 
3117.719 
3117.751 
3117.784 
3117.816 
3117.849 
3117.881 
3117.914 
3117.946 
3117.979 
3118.011 
3118.044 
3118.076 
3118.109 
3118.141 
3118.174 
3118.206 
3118.239 
3118.271 
3118.304 
3118.336 
3118.369 
3118.401 
3118.434 
3118.466 
3118.499 
3118.531 
3118.564 
3118.596 
3118.629 
3118.661 
3118.694 
3118.726 
3118.758 
3118.791 
3118.823 
3118.856 
3118.888 
3118.921 
3118.953 
3118.986 
3119.018 
3119.051 
3119.083 
3119.116 
3119.148 
3119.180 
3119.213 
3119.245 
3119.278 
3119.310 
3119.343 
3119.375 
3119.408 
3119.440 
3119.472 
3119.505 
3119.537 
3119.570 
3119.602 
3119.635 
3119.667 
3119.700 
3119.732 
3119.764 
3119.797 
3119.829 
3119.862 
3119.894 
3119.927 
3119.959 
3119.991 
3120.024 
3120.056 
3120.089 
3120.121 
3120.154 
3120.186 
3120.218 
3120.251 
3120.283 
3120.316 
3120.348 
3120.380 
3120.413 
3120.445 
3120.478 
3120.510 
3120.543 
3120.575 
3120.607 
3120.640 
3120.672 
3120.705 
3120.737 
3120.769 
3120.802 
3120.834 
3120.867 
3120.899 
3120.931 
3120.964 
3120.996 
3121.029 
3121.061 
3121.093 
3121.126 
3121.158 
3121.190 
3121.223 
3121.255 
3121.288 
3121.320 
3121.352 
3121.385 
3121.417 
3121.449 
3121.482 
3121.514 
3121.547 
3121.579 
3121.611 
3121.644 
3121.676 
3121.708 
3121.741 
3121.773 
3121.806 
3121.838 
3121.870 
3121.903 
3121.935 
3121.967 
3122.000 
3122.032 
3122.064 
3122.097 
3122.129 
3122.161 
3122.194 
3122.226 
3122.259 
3122.291 
3122.323 
3122.356 
3122.388 
3122.420 
3122.453 
3122.485 
3122.517 
3122.550 
3122.582 
3122.614 
3122.647 
3122.679 
3122.711 
3122.744 
3122.776 
3122.808 
3122.841 
3122.873 
3122.905 
3122.938 
3122.970 
3123.002 
3123.035 
3123.067 
3123.099 
3123.132 
3123.164 
3123.196 
3123.228 
3123.261 
3123.293 
3123.325 
3123.358 
3123.390 
3123.422 
3123.455 
3123.487 
3123.519 
3123.552 
3123.584 
3123.616 
3123.648 
3123.681 
3123.713 
3123.745 
3123.778 
3123.810 
3123.842 
3123.875 
3123.907 
3123.939 
3123.971 
3124.004 
3124.036 
3124.068 
3124.101 
3124.133 
3124.165 
3124.197 
3124.230 
3124.262 
3124.294 
3124.326 
3124.359 
3124.391 
3124.423 
3124.456 
3124.488 
3124.520 
3124.552 
3124.585 
3124.617 
3124.649 
3124.681 
3124.714 
3124.746 
3124.778 
3124.811 
3124.843 
3124.875 
3124.907 
3124.940 
3124.972 
3125.004 
3125.036 
3125.069 
3125.101 
3125.133 
3125.165 
3125.198 
3125.230 
3125.262 
3125.294 
3125.327 
3125.359 
3125.391 
3125.423 
3125.455 
3125.488 
3125.520 
3125.552 
3125.584 
3125.617 
3125.649 
3125.681 
3125.713 
3125.746 
3125.778 
3125.810 
3125.842 
3125.874 
3125.907 
3125.939 
3125.971 
3126.003 
3126.036 
3126.068 
3126.100 
3126.132 
3126.164 
3126.197 
3126.229 
3126.261 
3126.293 
3126.325 
3126.358 
3126.390 
3126.422 
3126.454 
3126.487 
3126.519 
3126.551 
3126.583 
3126.615 
3126.647 
3126.680 
3126.712 
3126.744 
3126.776 
3126.808 
3126.841 
3126.873 
3126.905 
3126.937 
3126.969 
3127.002 
3127.034 
3127.066 
3127.098 
3127.130 
3127.162 
3127.195 
3127.227 
3127.259 
3127.291 
3127.323 
3127.356 
3127.388 
3127.420 
3127.452 
3127.484 
3127.516 
3127.549 
3127.581 
3127.613 
3127.645 
3127.677 
3127.709 
3127.742 
3127.774 
3127.806 
3127.838 
3127.870 
3127.902 
3127.934 
3127.967 
3127.999 
3128.031 
3128.063 
3128.095 
3128.127 
3128.159 
3128.192 
3128.224 
3128.256 
3128.288 
3128.320 
3128.352 
3128.384 
3128.417 
3128.449 
3128.481 
3128.513 
3128.545 
3128.577 
3128.609 
3128.641 
3128.674 
3128.706 
3128.738 
3128.770 
3128.802 
3128.834 
3128.866 
3128.898 
3128.931 
3128.963 
3128.995 
3129.027 
3129.059 
3129.091 
3129.123 
3129.155 
3129.187 
3129.220 
3129.252 
3129.284 
3129.316 
3129.348 
3129.380 
3129.412 
3129.444 
3129.476 
3129.509 
3129.541 
3129.573 
3129.605 
3129.637 
3129.669 
3129.701 
3129.733 
3129.765 
3129.797 
3129.829 
3129.862 
3129.894 
3129.926 
3129.958 
3129.990 
3130.022 
3130.054 
3130.086 
3130.118 
3130.150 
3130.182 
3130.214 
3130.246 
3130.279 
3130.311 
3130.343 
3130.375 
3130.407 
3130.439 
3130.471 
3130.503 
3130.535 
3130.567 
3130.599 
3130.631 
3130.663 
3130.695 
3130.727 
3130.759 
3130.791 
3130.824 
3130.856 
3130.888 
3130.920 
3130.952 
3130.984 
3131.016 
3131.048 
3131.080 
3131.112 
3131.144 
3131.176 
3131.208 
3131.240 
3131.272 
3131.304 
3131.336 
3131.368 
3131.400 
3131.432 
3131.464 
3131.496 
3131.528 
3131.560 
3131.592 
3131.624 
3131.656 
3131.688 
3131.721 
3131.753 
3131.785 
3131.817 
3131.849 
3131.881 
3131.913 
3131.945 
3131.977 
3132.009 
3132.041 
3132.073 
3132.105 
3132.137 
3132.169 
3132.201 
3132.233 
3132.265 
3132.297 
3132.329 
3132.361 
3132.393 
3132.425 
3132.457 
3132.489 
3132.521 
3132.553 
3132.585 
3132.617 
3132.649 
3132.681 
3132.713 
3132.745 
3132.777 
3132.809 
3132.841 
3132.872 
3132.904 
3132.936 
3132.968 
3133.000 
3133.032 
3133.064 
3133.096 
3133.128 
3133.160 
3133.192 
3133.224 
3133.256 
3133.288 
3133.320 
3133.352 
3133.384 
3133.416 
3133.448 
3133.480 
3133.512 
3133.544 
3133.576 
3133.608 
3133.640 
3133.672 
3133.704 
3133.736 
3133.767 
3133.799 
3133.831 
3133.863 
3133.895 
3133.927 
3133.959 
3133.991 
3134.023 
3134.055 
3134.087 
3134.119 
3134.151 
3134.183 
3134.215 
3134.247 
3134.278 
3134.310 
3134.342 
3134.374 
3134.406 
3134.438 
3134.470 
3134.502 
3134.534 
3134.566 
3134.598 
3134.630 
3134.662 
3134.693 
3134.725 
3134.757 
3134.789 
3134.821 
3134.853 
3134.885 
3134.917 
3134.949 
3134.981 
3135.013 
3135.044 
3135.076 
3135.108 
3135.140 
3135.172 
3135.204 
3135.236 
3135.268 
3135.300 
3135.332 
3135.363 
3135.395 
3135.427 
3135.459 
3135.491 
3135.523 
3135.555 
3135.587 
3135.619 
3135.650 
3135.682 
3135.714 
3135.746 
3135.778 
3135.810 
3135.842 
3135.874 
3135.905 
3135.937 
3135.969 
3136.001 
3136.033 
3136.065 
3136.097 
3136.129 
3136.160 
3136.192 
3136.224 
3136.256 
3136.288 
3136.320 
3136.352 
3136.383 
3136.415 
3136.447 
3136.479 
3136.511 
3136.543 
3136.575 
3136.606 
3136.638 
3136.670 
3136.702 
3136.734 
3136.766 
3136.797 
3136.829 
3136.861 
3136.893 
3136.925 
3136.957 
3136.989 
3137.020 
3137.052 
3137.084 
3137.116 
3137.148 
3137.180 
3137.211 
3137.243 
3137.275 
3137.307 
3137.339 
3137.370 
3137.402 
3137.434 
3137.466 
3137.498 
3137.530 
3137.561 
3137.593 
3137.625 
3137.657 
3137.689 
3137.720 
3137.752 
3137.784 
3137.816 
3137.848 
3137.879 
3137.911 
3137.943 
3137.975 
3138.007 
3138.038 
3138.070 
3138.102 
3138.134 
3138.166 
3138.197 
3138.229 
3138.261 
3138.293 
3138.325 
3138.356 
3138.388 
3138.420 
3138.452 
3138.484 
3138.515 
3138.547 
3138.579 
3138.611 
3138.642 
3138.674 
3138.706 
3138.738 
3138.770 
3138.801 
3138.833 
3138.865 
3138.897 
3138.928 
3138.960 
3138.992 
3139.024 
3139.055 
3139.087 
3139.119 
3139.151 
3139.182 
3139.214 
3139.246 
3139.278 
3139.310 
3139.341 
3139.373 
3139.405 
3139.437 
3139.468 
3139.500 
3139.532 
3139.564 
3139.595 
3139.627 
3139.659 
3139.690 
3139.722 
3139.754 
3139.786 
3139.817 
3139.849 
3139.881 
3139.913 
3139.944 
3139.976 
3140.008 
3140.040 
3140.071 
3140.103 
3140.135 
3140.166 
3140.198 
3140.230 
3140.262 
3140.293 
3140.325 
3140.357 
3140.388 
3140.420 
3140.452 
3140.484 
3140.515 
3140.547 
3140.579 
3140.610 
3140.642 
3140.674 
3140.706 
3140.737 
3140.769 
3140.801 
3140.832 
3140.864 
3140.896 
3140.927 
3140.959 
3140.991 
3141.023 
3141.054 
3141.086 
3141.118 
3141.149 
3141.181 
3141.213 
3141.244 
3141.276 
3141.308 
3141.339 
3141.371 
3141.403 
3141.435 
3141.466 
3141.498 
3141.530 
3141.561 
3141.593 
3141.625 
3141.656 
3141.688 
3141.720 
3141.751 
3141.783 
3141.815 
3141.846 
3141.878 
3141.910 
3141.941 
3141.973 
3142.005 
3142.036 
3142.068 
3142.100 
3142.131 
3142.163 
3142.194 
3142.226 
3142.258 
3142.289 
3142.321 
3142.353 
3142.384 
3142.416 
3142.448 
3142.479 
3142.511 
3142.543 
3142.574 
3142.606 
3142.637 
3142.669 
3142.701 
3142.732 
3142.764 
3142.796 
3142.827 
3142.859 
3142.891 
3142.922 
3142.954 
3142.985 
3143.017 
3143.049 
3143.080 
3143.112 
3143.144 
3143.175 
3143.207 
3143.238 
3143.270 
3143.302 
3143.333 
3143.365 
3143.396 
3143.428 
3143.460 
3143.491 
3143.523 
3143.554 
3143.586 
3143.618 
3143.649 
3143.681 
3143.712 
3143.744 
3143.776 
3143.807 
3143.839 
3143.870 
3143.902 
3143.934 
3143.965 
3143.997 
3144.028 
3144.060 
3144.092 
3144.123 
3144.155 
3144.186 
3144.218 
3144.249 
3144.281 
3144.313 
3144.344 
3144.376 
3144.407 
3144.439 
3144.471 
3144.502 
3144.534 
3144.565 
3144.597 
3144.628 
3144.660 
3144.691 
3144.723 
3144.755 
3144.786 
3144.818 
3144.849 
3144.881 
3144.912 
3144.944 
3144.976 
3145.007 
3145.039 
3145.070 
3145.102 
3145.133 
3145.165 
3145.196 
3145.228 
3145.259 
3145.291 
3145.323 
3145.354 
3145.386 
3145.417 
3145.449 
3145.480 
3145.512 
3145.543 
3145.575 
3145.606 
3145.638 
3145.669 
3145.701 
3145.732 
3145.764 
3145.796 
3145.827 
3145.859 
3145.890 
3145.922 
3145.953 
3145.985 
3146.016 
3146.048 
3146.079 
3146.111 
3146.142 
3146.174 
3146.205 
3146.237 
3146.268 
3146.300 
3146.331 
3146.363 
3146.394 
3146.426 
3146.457 
3146.489 
3146.520 
3146.552 
3146.583 
3146.615 
3146.646 
3146.678 
3146.709 
3146.741 
3146.772 
3146.804 
3146.835 
3146.867 
3146.898 
3146.930 
3146.961 
3146.993 
3147.024 
3147.056 
3147.087 
3147.119 
3147.150 
3147.182 
3147.213 
3147.245 
3147.276 
3147.307 
3147.339 
3147.370 
3147.402 
3147.433 
3147.465 
3147.496 
3147.528 
3147.559 
3147.591 
3147.622 
3147.654 
3147.685 
3147.716 
3147.748 
3147.779 
3147.811 
3147.842 
3147.874 
3147.905 
3147.937 
3147.968 
3148.000 
3148.031 
3148.062 
3148.094 
3148.125 
3148.157 
3148.188 
3148.220 
3148.251 
3148.283 
3148.314 
3148.345 
3148.377 
3148.408 
3148.440 
3148.471 
3148.503 
3148.534 
3148.565 
3148.597 
3148.628 
3148.660 
3148.691 
3148.723 
3148.754 
3148.785 
3148.817 
3148.848 
3148.880 
3148.911 
3148.942 
3148.974 
3149.005 
3149.037 
3149.068 
3149.099 
3149.131 
3149.162 
3149.194 
3149.225 
3149.257 
3149.288 
3149.319 
3149.351 
3149.382 
3149.414 
3149.445 
3149.476 
3149.508 
3149.539 
3149.570 
3149.602 
3149.633 
3149.665 
3149.696 
3149.727 
3149.759 
3149.790 
3149.822 
3149.853 
3149.884 
3149.916 
3149.947 
3149.978 
3150.010 
3150.041 
3150.073 
3150.104 
3150.135 
3150.167 
3150.198 
3150.229 
3150.261 
3150.292 
3150.324 
3150.355 
3150.386 
3150.418 
3150.449 
3150.480 
3150.512 
3150.543 
3150.574 
3150.606 
3150.637 
3150.668 
3150.700 
3150.731 
3150.763 
3150.794 
3150.825 
3150.857 
3150.888 
3150.919 
3150.951 
3150.982 
3151.013 
3151.045 
3151.076 
3151.107 
3151.139 
3151.170 
3151.201 
3151.233 
3151.264 
3151.295 
3151.327 
3151.358 
3151.389 
3151.421 
3151.452 
3151.483 
3151.515 
3151.546 
3151.577 
3151.609 
3151.640 
3151.671 
3151.702 
3151.734 
3151.765 
3151.796 
3151.828 
3151.859 
3151.890 
3151.922 
3151.953 
3151.984 
3152.016 
3152.047 
3152.078 
3152.109 
3152.141 
3152.172 
3152.203 
3152.235 
3152.266 
3152.297 
3152.329 
3152.360 
3152.391 
3152.422 
3152.454 
3152.485 
3152.516 
3152.548 
3152.579 
3152.610 
3152.641 
3152.673 
3152.704 
3152.735 
3152.767 
3152.798 
3152.829 
3152.860 
3152.892 
3152.923 
3152.954 
3152.985 
3153.017 
3153.048 
3153.079 
3153.110 
3153.142 
3153.173 
3153.204 
3153.236 
3153.267 
3153.298 
3153.329 
3153.361 
3153.392 
3153.423 
3153.454 
3153.486 
3153.517 
3153.548 
3153.579 
3153.611 
3153.642 
3153.673 
3153.704 
3153.736 
3153.767 
3153.798 
3153.829 
3153.861 
3153.892 
3153.923 
3153.954 
3153.985 
3154.017 
3154.048 
3154.079 
3154.110 
3154.142 
3154.173 
3154.204 
3154.235 
3154.267 
3154.298 
3154.329 
3154.360 
3154.391 
3154.423 
3154.454 
3154.485 
3154.516 
3154.547 
3154.579 
3154.610 
3154.641 
3154.672 
3154.704 
3154.735 
3154.766 
3154.797 
3154.828 
3154.860 
3154.891 
3154.922 
3154.953 
3154.984 
3155.016 
3155.047 
3155.078 
3155.109 
3155.140 
3155.172 
3155.203 
3155.234 
3155.265 
3155.296 
3155.327 
3155.359 
3155.390 
3155.421 
3155.452 
3155.483 
3155.515 
3155.546 
3155.577 
3155.608 
3155.639 
3155.670 
3155.702 
3155.733 
3155.764 
3155.795 
3155.826 
3155.857 
3155.889 
3155.920 
3155.951 
3155.982 
3156.013 
3156.044 
3156.076 
3156.107 
3156.138 
3156.169 
3156.200 
3156.231 
3156.263 
3156.294 
3156.325 
3156.356 
3156.387 
3156.418 
3156.449 
3156.481 
3156.512 
3156.543 
3156.574 
3156.605 
3156.636 
3156.667 
3156.699 
3156.730 
3156.761 
3156.792 
3156.823 
3156.854 
3156.885 
3156.916 
3156.948 
3156.979 
3157.010 
3157.041 
3157.072 
3157.103 
3157.134 
3157.165 
3157.197 
3157.228 
3157.259 
3157.290 
3157.321 
3157.352 
3157.383 
3157.414 
3157.445 
3157.477 
3157.508 
3157.539 
3157.570 
3157.601 
3157.632 
3157.663 
3157.694 
3157.725 
3157.757 
3157.788 
3157.819 
3157.850 
3157.881 
3157.912 
3157.943 
3157.974 
3158.005 
3158.036 
3158.067 
3158.099 
3158.130 
3158.161 
3158.192 
3158.223 
3158.254 
3158.285 
3158.316 
3158.347 
3158.378 
3158.409 
3158.440 
3158.471 
3158.503 
3158.534 
3158.565 
3158.596 
3158.627 
3158.658 
3158.689 
3158.720 
3158.751 
3158.782 
3158.813 
3158.844 
3158.875 
3158.906 
3158.937 
3158.968 
3159.000 
3159.031 
3159.062 
3159.093 
3159.124 
3159.155 
3159.186 
3159.217 
3159.248 
3159.279 
3159.310 
3159.341 
3159.372 
3159.403 
3159.434 
3159.465 
3159.496 
3159.527 
3159.558 
3159.589 
3159.620 
3159.651 
3159.682 
3159.713 
3159.745 
3159.776 
3159.807 
3159.838 
3159.869 
3159.900 
3159.931 
3159.962 
3159.993 
3160.024 
3160.055 
3160.086 
3160.117 
3160.148 
3160.179 
3160.210 
3160.241 
3160.272 
3160.303 
3160.334 
3160.365 
3160.396 
3160.427 
3160.458 
3160.489 
3160.520 
3160.551 
3160.582 
3160.613 
3160.644 
3160.675 
3160.706 
3160.737 
3160.768 
3160.799 
3160.830 
3160.861 
3160.892 
3160.923 
3160.954 
3160.985 
3161.016 
3161.047 
3161.078 
3161.109 
3161.140 
3161.171 
3161.202 
3161.233 
3161.263 
3161.294 
3161.325 
3161.356 
3161.387 
3161.418 
3161.449 
3161.480 
3161.511 
3161.542 
3161.573 
3161.604 
3161.635 
3161.666 
3161.697 
3161.728 
3161.759 
3161.790 
3161.821 
3161.852 
3161.883 
3161.914 
3161.945 
3161.976 
3162.006 
3162.037 
3162.068 
3162.099 
3162.130 
3162.161 
3162.192 
3162.223 
3162.254 
3162.285 
3162.316 
3162.347 
3162.378 
3162.409 
3162.440 
3162.471 
3162.501 
3162.532 
3162.563 
3162.594 
3162.625 
3162.656 
3162.687 
3162.718 
3162.749 
3162.780 
3162.811 
3162.842 
3162.873 
3162.903 
3162.934 
3162.965 
3162.996 
3163.027 
3163.058 
3163.089 
3163.120 
3163.151 
3163.182 
3163.212 
3163.243 
3163.274 
3163.305 
3163.336 
3163.367 
3163.398 
3163.429 
3163.460 
3163.491 
3163.521 
3163.552 
3163.583 
3163.614 
3163.645 
3163.676 
3163.707 
3163.738 
3163.769 
3163.799 
3163.830 
3163.861 
3163.892 
3163.923 
3163.954 
3163.985 
3164.016 
3164.046 
3164.077 
3164.108 
3164.139 
3164.170 
3164.201 
3164.232 
3164.262 
3164.293 
3164.324 
3164.355 
3164.386 
3164.417 
3164.448 
3164.479 
3164.509 
3164.540 
3164.571 
3164.602 
3164.633 
3164.664 
3164.694 
3164.725 
3164.756 
3164.787 
3164.818 
3164.849 
3164.880 
3164.910 
3164.941 
3164.972 
3165.003 
3165.034 
3165.065 
3165.095 
3165.126 
3165.157 
3165.188 
3165.219 
3165.250 
3165.280 
3165.311 
3165.342 
3165.373 
3165.404 
3165.435 
3165.465 
3165.496 
3165.527 
3165.558 
3165.589 
3165.619 
3165.650 
3165.681 
3165.712 
3165.743 
3165.773 
3165.804 
3165.835 
3165.866 
3165.897 
3165.928 
3165.958 
3165.989 
3166.020 
3166.051 
3166.082 
3166.112 
3166.143 
3166.174 
3166.205 
3166.235 
3166.266 
3166.297 
3166.328 
3166.359 
3166.389 
3166.420 
3166.451 
3166.482 
3166.513 
3166.543 
3166.574 
3166.605 
3166.636 
3166.666 
3166.697 
3166.728 
3166.759 
3166.790 
3166.820 
3166.851 
3166.882 
3166.913 
3166.943 
3166.974 
3167.005 
3167.036 
3167.066 
3167.097 
3167.128 
3167.159 
3167.190 
3167.220 
3167.251 
3167.282 
3167.313 
3167.343 
3167.374 
3167.405 
3167.436 
3167.466 
3167.497 
3167.528 
3167.559 
3167.589 
3167.620 
3167.651 
3167.681 
3167.712 
3167.743 
3167.774 
3167.804 
3167.835 
3167.866 
3167.897 
3167.927 
3167.958 
3167.989 
3168.020 
3168.050 
3168.081 
3168.112 
3168.142 
3168.173 
3168.204 
3168.235 
3168.265 
3168.296 
3168.327 
3168.357 
3168.388 
3168.419 
3168.450 
3168.480 
3168.511 
3168.542 
3168.572 
3168.603 
3168.634 
3168.665 
3168.695 
3168.726 
3168.757 
3168.787 
3168.818 
3168.849 
3168.879 
3168.910 
3168.941 
3168.972 
3169.002 
3169.033 
3169.064 
3169.094 
3169.125 
3169.156 
3169.186 
3169.217 
3169.248 
3169.278 
3169.309 
3169.340 
3169.370 
3169.401 
3169.432 
3169.462 
3169.493 
3169.524 
3169.555 
3169.585 
3169.616 
3169.647 
3169.677 
3169.708 
3169.739 
3169.769 
3169.800 
3169.831 
3169.861 
3169.892 
3169.922 
3169.953 
3169.984 
3170.014 
3170.045 
3170.076 
3170.106 
3170.137 
3170.168 
3170.198 
3170.229 
3170.260 
3170.290 
3170.321 
3170.352 
3170.382 
3170.413 
3170.444 
3170.474 
3170.505 
3170.535 
3170.566 
3170.597 
3170.627 
3170.658 
3170.689 
3170.719 
3170.750 
3170.780 
3170.811 
3170.842 
3170.872 
3170.903 
3170.934 
3170.964 
3170.995 
3171.025 
3171.056 
3171.087 
3171.117 
3171.148 
3171.179 
3171.209 
3171.240 
3171.270 
3171.301 
3171.332 
3171.362 
3171.393 
3171.423 
3171.454 
3171.485 
3171.515 
3171.546 
3171.576 
3171.607 
3171.638 
3171.668 
3171.699 
3171.729 
3171.760 
3171.791 
3171.821 
3171.852 
3171.882 
3171.913 
3171.944 
3171.974 
3172.005 
3172.035 
3172.066 
3172.096 
3172.127 
3172.158 
3172.188 
3172.219 
3172.249 
3172.280 
3172.310 
3172.341 
3172.372 
3172.402 
3172.433 
3172.463 
3172.494 
3172.524 
3172.555 
3172.586 
3172.616 
3172.647 
3172.677 
3172.708 
3172.738 
3172.769 
3172.799 
3172.830 
3172.861 
3172.891 
3172.922 
3172.952 
3172.983 
3173.013 
3173.044 
3173.074 
3173.105 
3173.135 
3173.166 
3173.197 
3173.227 
3173.258 
3173.288 
3173.319 
3173.349 
3173.380 
3173.410 
3173.441 
3173.471 
3173.502 
3173.532 
3173.563 
3173.593 
3173.624 
3173.654 
3173.685 
3173.716 
3173.746 
3173.777 
3173.807 
3173.838 
3173.868 
3173.899 
3173.929 
3173.960 
3173.990 
3174.021 
3174.051 
3174.082 
3174.112 
3174.143 
3174.173 
3174.204 
3174.234 
3174.265 
3174.295 
3174.326 
3174.356 
3174.387 
3174.417 
3174.448 
3174.478 
3174.509 
3174.539 
3174.570 
3174.600 
3174.631 
3174.661 
3174.692 
3174.722 
3174.753 
3174.783 
3174.814 
3174.844 
3174.874 
3174.905 
3174.935 
3174.966 
3174.996 
3175.027 
3175.057 
3175.088 
3175.118 
3175.149 
3175.179 
3175.210 
3175.240 
3175.271 
3175.301 
3175.331 
3175.362 
3175.392 
3175.423 
3175.453 
3175.484 
3175.514 
3175.545 
3175.575 
3175.606 
3175.636 
3175.666 
3175.697 
3175.727 
3175.758 
3175.788 
3175.819 
3175.849 
3175.880 
3175.910 
3175.940 
3175.971 
3176.001 
3176.032 
3176.062 
3176.093 
3176.123 
3176.154 
3176.184 
3176.214 
3176.245 
3176.275 
3176.306 
3176.336 
3176.367 
3176.397 
3176.427 
3176.458 
3176.488 
3176.519 
3176.549 
3176.579 
3176.610 
3176.640 
3176.671 
3176.701 
3176.731 
3176.762 
3176.792 
3176.823 
3176.853 
3176.884 
3176.914 
3176.944 
3176.975 
3177.005 
3177.036 
3177.066 
3177.096 
3177.127 
3177.157 
3177.188 
3177.218 
3177.248 
3177.279 
3177.309 
3177.339 
3177.370 
3177.400 
3177.431 
3177.461 
3177.491 
3177.522 
3177.552 
3177.583 
3177.613 
3177.643 
3177.674 
3177.704 
3177.734 
3177.765 
3177.795 
3177.825 
3177.856 
3177.886 
3177.917 
3177.947 
3177.977 
3178.008 
3178.038 
3178.068 
3178.099 
3178.129 
3178.159 
3178.190 
3178.220 
3178.251 
3178.281 
3178.311 
3178.342 
3178.372 
3178.402 
3178.433 
3178.463 
3178.493 
3178.524 
3178.554 
3178.584 
3178.615 
3178.645 
3178.675 
3178.706 
3178.736 
3178.766 
3178.797 
3178.827 
3178.857 
3178.888 
3178.918 
3178.948 
3178.979 
3179.009 
3179.039 
3179.070 
3179.100 
3179.130 
3179.161 
3179.191 
3179.221 
3179.252 
3179.282 
3179.312 
3179.343 
3179.373 
3179.403 
3179.433 
3179.464 
3179.494 
3179.524 
3179.555 
3179.585 
3179.615 
3179.646 
3179.676 
3179.706 
3179.737 
3179.767 
3179.797 
3179.827 
3179.858 
3179.888 
3179.918 
3179.949 
3179.979 
3180.009 
3180.039 
3180.070 
3180.100 
3180.130 
3180.161 
3180.191 
3180.221 
3180.251 
3180.282 
3180.312 
3180.342 
3180.373 
3180.403 
3180.433 
3180.463 
3180.494 
3180.524 
3180.554 
3180.584 
3180.615 
3180.645 
3180.675 
3180.705 
3180.736 
3180.766 
3180.796 
3180.827 
3180.857 
3180.887 
3180.917 
3180.948 
3180.978 
3181.008 
3181.038 
3181.069 
3181.099 
3181.129 
3181.159 
3181.190 
3181.220 
3181.250 
3181.280 
3181.311 
3181.341 
3181.371 
3181.401 
3181.431 
3181.462 
3181.492 
3181.522 
3181.552 
3181.583 
3181.613 
3181.643 
3181.673 
3181.704 
3181.734 
3181.764 
3181.794 
3181.824 
3181.855 
3181.885 
3181.915 
3181.945 
3181.976 
3182.006 
3182.036 
3182.066 
3182.096 
3182.127 
3182.157 
3182.187 
3182.217 
3182.247 
3182.278 
3182.308 
3182.338 
3182.368 
3182.398 
3182.429 
3182.459 
3182.489 
3182.519 
3182.549 
3182.580 
3182.610 
3182.640 
3182.670 
3182.700 
3182.731 
3182.761 
3182.791 
3182.821 
3182.851 
3182.882 
3182.912 
3182.942 
3182.972 
3183.002 
3183.032 
3183.063 
3183.093 
3183.123 
3183.153 
3183.183 
3183.213 
3183.244 
3183.274 
3183.304 
3183.334 
3183.364 
3183.394 
3183.425 
3183.455 
3183.485 
3183.515 
3183.545 
3183.575 
3183.606 
3183.636 
3183.666 
3183.696 
3183.726 
3183.756 
3183.786 
3183.817 
3183.847 
3183.877 
3183.907 
3183.937 
3183.967 
3183.998 
3184.028 
3184.058 
3184.088 
3184.118 
3184.148 
3184.178 
3184.208 
3184.239 
3184.269 
3184.299 
3184.329 
3184.359 
3184.389 
3184.419 
3184.449 
3184.480 
3184.510 
3184.540 
3184.570 
3184.600 
3184.630 
3184.660 
3184.690 
3184.721 
3184.751 
3184.781 
3184.811 
3184.841 
3184.871 
3184.901 
3184.931 
3184.961 
3184.992 
3185.022 
3185.052 
3185.082 
3185.112 
3185.142 
3185.172 
3185.202 
3185.232 
3185.262 
3185.293 
3185.323 
3185.353 
3185.383 
3185.413 
3185.443 
3185.473 
3185.503 
3185.533 
3185.563 
3185.593 
3185.623 
3185.654 
3185.684 
3185.714 
3185.744 
3185.774 
3185.804 
3185.834 
3185.864 
3185.894 
3185.924 
3185.954 
3185.984 
3186.014 
3186.045 
3186.075 
3186.105 
3186.135 
3186.165 
3186.195 
3186.225 
3186.255 
3186.285 
3186.315 
3186.345 
3186.375 
3186.405 
3186.435 
3186.465 
3186.495 
3186.525 
3186.555 
3186.586 
3186.616 
3186.646 
3186.676 
3186.706 
3186.736 
3186.766 
3186.796 
3186.826 
3186.856 
3186.886 
3186.916 
3186.946 
3186.976 
3187.006 
3187.036 
3187.066 
3187.096 
3187.126 
3187.156 
3187.186 
3187.216 
3187.246 
3187.276 
3187.306 
3187.336 
3187.366 
3187.396 
3187.426 
3187.456 
3187.486 
3187.516 
3187.546 
3187.576 
3187.606 
3187.636 
3187.666 
3187.696 
3187.726 
3187.756 
3187.786 
3187.816 
3187.846 
3187.876 
3187.906 
3187.936 
3187.966 
3187.996 
3188.026 
3188.056 
3188.086 
3188.116 
3188.146 
3188.176 
3188.206 
3188.236 
3188.266 
3188.296 
3188.326 
3188.356 
3188.386 
3188.416 
3188.446 
3188.476 
3188.506 
3188.536 
3188.566 
3188.596 
3188.626 
3188.656 
3188.686 
3188.716 
3188.746 
3188.776 
3188.806 
3188.836 
3188.866 
3188.896 
3188.926 
3188.956 
3188.986 
3189.015 
3189.045 
3189.075 
3189.105 
3189.135 
3189.165 
3189.195 
3189.225 
3189.255 
3189.285 
3189.315 
3189.345 
3189.375 
3189.405 
3189.435 
3189.465 
3189.495 
3189.525 
3189.554 
3189.584 
3189.614 
3189.644 
3189.674 
3189.704 
3189.734 
3189.764 
3189.794 
3189.824 
3189.854 
3189.884 
3189.914 
3189.944 
3189.973 
3190.003 
3190.033 
3190.063 
3190.093 
3190.123 
3190.153 
3190.183 
3190.213 
3190.243 
3190.273 
3190.303 
3190.332 
3190.362 
3190.392 
3190.422 
3190.452 
3190.482 
3190.512 
3190.542 
3190.572 
3190.602 
3190.631 
3190.661 
3190.691 
3190.721 
3190.751 
3190.781 
3190.811 
3190.841 
3190.871 
3190.900 
3190.930 
3190.960 
3190.990 
3191.020 
3191.050 
3191.080 
3191.110 
3191.139 
3191.169 
3191.199 
3191.229 
3191.259 
3191.289 
3191.319 
3191.349 
3191.378 
3191.408 
3191.438 
3191.468 
3191.498 
3191.528 
3191.558 
3191.587 
3191.617 
3191.647 
3191.677 
3191.707 
3191.737 
3191.767 
3191.796 
3191.826 
3191.856 
3191.886 
3191.916 
3191.946 
3191.976 
3192.005 
3192.035 
3192.065 
3192.095 
3192.125 
3192.155 
3192.184 
3192.214 
3192.244 
3192.274 
3192.304 
3192.334 
3192.363 
3192.393 
3192.423 
3192.453 
3192.483 
3192.513 
3192.542 
3192.572 
3192.602 
3192.632 
3192.662 
3192.691 
3192.721 
3192.751 
3192.781 
3192.811 
3192.841 
3192.870 
3192.900 
3192.930 
3192.960 
3192.990 
3193.019 
3193.049 
3193.079 
3193.109 
3193.139 
3193.168 
3193.198 
3193.228 
3193.258 
3193.288 
3193.317 
3193.347 
3193.377 
3193.407 
3193.437 
3193.466 
3193.496 
3193.526 
3193.556 
3193.585 
3193.615 
3193.645 
3193.675 
3193.705 
3193.734 
3193.764 
3193.794 
3193.824 
3193.853 
3193.883 
3193.913 
3193.943 
3193.973 
3194.002 
3194.032 
3194.062 
3194.092 
3194.121 
3194.151 
3194.181 
3194.211 
3194.240 
3194.270 
3194.300 
3194.330 
3194.359 
3194.389 
3194.419 
3194.449 
3194.478 
3194.508 
3194.538 
3194.568 
3194.597 
3194.627 
3194.657 
3194.687 
3194.716 
3194.746 
3194.776 
3194.806 
3194.835 
3194.865 
3194.895 
3194.925 
3194.954 
3194.984 
3195.014 
3195.044 
3195.073 
3195.103 
3195.133 
3195.162 
3195.192 
3195.222 
3195.252 
3195.281 
3195.311 
3195.341 
3195.370 
3195.400 
3195.430 
3195.460 
3195.489 
3195.519 
3195.549 
3195.578 
3195.608 
3195.638 
3195.668 
3195.697 
3195.727 
3195.757 
3195.786 
3195.816 
3195.846 
3195.876 
3195.905 
3195.935 
3195.965 
3195.994 
3196.024 
3196.054 
3196.083 
3196.113 
3196.143 
3196.172 
3196.202 
3196.232 
3196.261 
3196.291 
3196.321 
3196.351 
3196.380 
3196.410 
3196.440 
3196.469 
3196.499 
3196.529 
3196.558 
3196.588 
3196.618 
3196.647 
3196.677 
3196.707 
3196.736 
3196.766 
3196.796 
3196.825 
3196.855 
3196.885 
3196.914 
3196.944 
3196.974 
3197.003 
3197.033 
3197.063 
3197.092 
3197.122 
3197.151 
3197.181 
3197.211 
3197.240 
3197.270 
3197.300 
3197.329 
3197.359 
3197.389 
3197.418 
3197.448 
3197.478 
3197.507 
3197.537 
3197.566 
3197.596 
3197.626 
3197.655 
3197.685 
3197.715 
3197.744 
3197.774 
3197.803 
3197.833 
3197.863 
3197.892 
3197.922 
3197.952 
3197.981 
3198.011 
3198.040 
3198.070 
3198.100 
3198.129 
3198.159 
3198.189 
3198.218 
3198.248 
3198.277 
3198.307 
3198.337 
3198.366 
3198.396 
3198.425 
3198.455 
3198.485 
3198.514 
3198.544 
3198.573 
3198.603 
3198.633 
3198.662 
3198.692 
3198.721 
3198.751 
3198.781 
3198.810 
3198.840 
3198.869 
3198.899 
3198.928 
3198.958 
3198.988 
3199.017 
3199.047 
3199.076 
3199.106 
3199.135 
3199.165 
3199.195 
3199.224 
3199.254 
3199.283 
3199.313 
3199.342 
3199.372 
3199.402 
3199.431 
3199.461 
3199.490 
3199.520 
3199.549 
3199.579 
3199.609 
3199.638 
3199.668 
3199.697 
3199.727 
3199.756 
3199.786 
3199.815 
3199.845 
3199.875 
3199.904 
3199.934 
3199.963 
3199.993 
3200.022 
3200.052 
3200.081 
3200.111 
3200.140 
3200.170 
3200.199 
3200.229 
3200.259 
3200.288 
3200.318 
3200.347 
3200.377 
3200.406 
3200.436 
3200.465 
3200.495 
3200.524 
3200.554 
3200.583 
3200.613 
3200.642 
3200.672 
3200.701 
3200.731 
3200.760 
3200.790 
3200.819 
3200.849 
3200.878 
3200.908 
3200.937 
3200.967 
3200.996 
3201.026 
3201.056 
3201.085 
3201.115 
3201.144 
3201.174 
3201.203 
3201.232 
3201.262 
3201.291 
3201.321 
3201.350 
3201.380 
3201.409 
3201.439 
3201.468 
3201.498 
3201.527 
3201.557 
3201.586 
3201.616 
3201.645 
3201.675 
3201.704 
3201.734 
3201.763 
3201.793 
3201.822 
3201.852 
3201.881 
3201.911 
3201.940 
3201.970 
3201.999 
3202.028 
3202.058 
3202.087 
3202.117 
3202.146 
3202.176 
3202.205 
3202.235 
3202.264 
3202.294 
3202.323 
3202.353 
3202.382 
3202.411 
3202.441 
3202.470 
3202.500 
3202.529 
3202.559 
3202.588 
3202.618 
3202.647 
3202.676 
3202.706 
3202.735 
3202.765 
3202.794 
3202.824 
3202.853 
3202.882 
3202.912 
3202.941 
3202.971 
3203.000 
3203.030 
3203.059 
3203.089 
3203.118 
3203.147 
3203.177 
3203.206 
3203.236 
3203.265 
3203.294 
3203.324 
3203.353 
3203.383 
3203.412 
3203.442 
3203.471 
3203.500 
3203.530 
3203.559 
3203.589 
3203.618 
3203.647 
3203.677 
3203.706 
3203.736 
3203.765 
3203.794 
3203.824 
3203.853 
3203.883 
3203.912 
3203.941 
3203.971 
3204.000 
3204.030 
3204.059 
3204.088 
3204.118 
3204.147 
3204.176 
3204.206 
3204.235 
3204.265 
3204.294 
3204.323 
3204.353 
3204.382 
3204.412 
3204.441 
3204.470 
3204.500 
3204.529 
3204.558 
3204.588 
3204.617 
3204.646 
3204.676 
3204.705 
3204.735 
3204.764 
3204.793 
3204.823 
3204.852 
3204.881 
3204.911 
3204.940 
3204.969 
3204.999 
3205.028 
3205.057 
3205.087 
3205.116 
3205.146 
3205.175 
3205.204 
3205.234 
3205.263 
3205.292 
3205.322 
3205.351 
3205.380 
3205.410 
3205.439 
3205.468 
3205.498 
3205.527 
3205.556 
3205.586 
3205.615 
3205.644 
3205.674 
3205.703 
3205.732 
3205.762 
3205.791 
3205.820 
3205.850 
3205.879 
3205.908 
3205.937 
3205.967 
3205.996 
3206.025 
3206.055 
3206.084 
3206.113 
3206.143 
3206.172 
3206.201 
3206.231 
3206.260 
3206.289 
3206.319 
3206.348 
3206.377 
3206.406 
3206.436 
3206.465 
3206.494 
3206.524 
3206.553 
3206.582 
3206.611 
3206.641 
3206.670 
3206.699 
3206.729 
3206.758 
3206.787 
3206.816 
3206.846 
3206.875 
3206.904 
3206.934 
3206.963 
3206.992 
3207.021 
3207.051 
3207.080 
3207.109 
3207.139 
3207.168 
3207.197 
3207.226 
3207.256 
3207.285 
3207.314 
3207.343 
3207.373 
3207.402 
3207.431 
3207.460 
3207.490 
3207.519 
3207.548 
3207.577 
3207.607 
3207.636 
3207.665 
3207.694 
3207.724 
3207.753 
3207.782 
3207.811 
3207.841 
3207.870 
3207.899 
3207.928 
3207.958 
3207.987 
3208.016 
3208.045 
3208.075 
3208.104 
3208.133 
3208.162 
3208.192 
3208.221 
3208.250 
3208.279 
3208.308 
3208.338 
3208.367 
3208.396 
3208.425 
3208.455 
3208.484 
3208.513 
3208.542 
3208.571 
3208.601 
3208.630 
3208.659 
3208.688 
3208.718 
3208.747 
3208.776 
3208.805 
3208.834 
3208.864 
3208.893 
3208.922 
3208.951 
3208.980 
